t[s]	Bpos	Bspd	A[cm淫	Mma[鑑]	P1[mN/m]	P2[mN/m]	T[蚓]	SP[V]	pH	AD[V]
0.02	0.000	0.000	237.75	144.88	-0.796	0.000	24.23		0.09	0.000
10.18	0.800	5.000	236.55	144.15	-0.798	0.000	24.22		0.09	0.000
20.32	1.641	5.000	235.29	143.38	-0.851	0.000	24.21		0.09	0.000
30.48	2.483	5.000	234.03	142.61	-0.845	0.000	24.21		0.09	0.000
40.62	3.324	5.000	232.76	141.84	-0.879	0.000	24.22		0.09	0.000
50.63	4.149	5.000	231.53	141.09	-0.812	0.000	24.23		0.09	0.000
60.76	4.991	5.000	230.26	140.32	-0.779	0.000	24.23		0.09	0.000
70.92	5.834	5.000	229.00	139.55	-0.760	0.000	24.23		0.09	0.000
80.93	6.666	5.000	227.75	138.78	-0.811	0.000	24.24		0.10	0.000
91.14	7.509	5.000	226.49	138.01	-0.836	0.000	24.24		0.10	0.000
101.31	8.348	5.000	225.23	137.25	-0.849	0.000	24.25		0.10	0.000
111.32	9.183	5.000	223.98	136.48	-0.812	0.000	24.25		0.10	0.000
121.33	10.018	5.000	222.72	135.72	-0.751	0.000	24.25		0.10	0.000
131.33	10.842	5.000	221.49	134.97	-0.783	0.000	24.25		0.10	0.000
141.53	11.692	5.000	220.21	134.19	-0.809	0.000	24.25		0.10	0.000
151.55	12.516	5.000	218.98	133.44	-0.788	0.000	24.25		0.10	0.000
161.72	13.367	5.000	217.70	132.66	-0.783	0.000	24.25		0.10	0.000
171.92	14.206	5.000	216.44	131.89	-0.742	0.000	24.25		0.10	0.000
182.11	15.057	5.000	215.16	131.12	-0.692	0.000	24.26		0.10	0.000
192.32	15.899	5.000	213.90	130.35	-0.637	0.000	24.26		0.10	0.000
202.52	16.749	5.000	212.63	129.57	-0.648	0.000	24.26		0.10	0.000
212.53	17.574	5.000	211.39	128.81	-0.610	0.000	24.26		0.10	0.000
222.71	18.424	5.000	210.11	128.04	-0.564	0.000	24.26		0.10	0.000
232.71	19.249	5.000	208.88	127.28	-0.509	0.000	24.26		0.10	0.000
242.72	20.081	5.000	207.63	126.52	-0.443	0.000	24.26		0.11	0.000
252.91	20.925	5.000	206.36	125.75	-0.341	0.000	24.25		0.11	0.000
263.02	21.767	5.000	205.10	124.98	-0.308	0.000	24.26		0.11	0.000
273.17	22.607	5.000	203.84	124.21	-0.197	0.000	24.26		0.11	0.000
283.31	23.450	5.000	202.57	123.44	-0.063	0.000	24.27		0.11	0.000
293.34	24.282	5.000	201.33	122.68	0.109	0.000	24.26		0.11	0.000
303.53	25.123	5.000	200.06	121.91	0.176	0.000	24.26		0.11	0.000
313.54	25.949	5.000	198.83	121.16	0.329	0.000	24.27		0.11	0.000
323.74	26.799	5.000	197.55	120.38	0.442	0.000	24.27		0.11	0.000
333.75	27.632	5.000	196.30	119.62	0.636	0.000	24.27		0.11	0.000
343.79	28.466	5.000	195.05	118.86	0.751	0.000	24.27		0.11	0.000
353.84	29.299	5.000	193.80	118.10	0.957	0.000	24.27		0.11	0.000
363.92	30.131	5.000	192.55	117.34	1.145	0.000	24.27		0.11	0.000
373.98	30.967	5.000	191.30	116.57	1.292	0.000	24.27		0.12	0.000
384.04	31.799	5.000	190.05	115.81	1.486	0.000	24.27		0.12	0.000
394.11	32.632	5.000	188.80	115.05	1.642	0.000	24.27		0.12	0.000
404.18	33.473	5.000	187.54	114.28	1.813	0.000	24.28		0.12	0.000
414.24	34.308	5.000	186.29	113.52	2.042	0.000	24.27		0.12	0.000
424.32	35.138	5.000	185.04	112.76	2.199	0.000	24.26		0.12	0.000
434.40	35.973	5.000	183.79	112.00	2.426	0.000	24.26		0.12	0.000
444.46	36.806	5.000	182.54	111.24	2.602	0.000	24.26		0.12	0.000
454.52	37.648	5.000	181.28	110.47	2.846	0.000	24.26		0.12	0.000
464.60	38.482	5.000	180.03	109.70	3.031	0.000	24.27		0.12	0.000
474.66	39.315	5.000	178.78	108.94	3.266	0.000	24.27		0.12	0.000
484.73	40.150	5.000	177.53	108.18	3.415	0.000	24.27		0.12	0.000
494.81	40.982	5.000	176.28	107.42	3.691	0.000	24.28		0.12	0.000
504.87	41.823	5.000	175.02	106.65	3.889	0.000	24.28		0.13	0.000
514.94	42.657	5.000	173.76	105.89	4.109	0.000	24.27		0.13	0.000
525.01	43.491	5.000	172.51	105.13	4.264	0.000	24.28		0.13	0.000
535.06	44.324	5.000	171.26	104.36	4.553	0.000	24.28		0.13	0.000
545.13	45.157	5.000	170.01	103.60	4.806	0.000	24.28		0.13	0.000
555.20	45.989	5.000	168.77	102.84	5.003	0.000	24.29		0.13	0.000
565.25	46.824	5.000	167.51	102.08	5.219	0.000	24.29		0.13	0.000
575.30	47.655	5.000	166.27	101.32	5.500	0.000	24.30		0.13	0.000
585.37	48.499	5.000	165.00	100.55	5.753	0.000	24.30		0.13	0.000
595.45	49.333	5.000	163.75	99.79	6.045	0.000	24.29		0.13	0.000
605.51	50.165	5.000	162.50	99.02	6.241	0.000	24.28		0.13	0.000
615.59	50.997	5.000	161.25	98.26	6.485	0.000	24.28		0.14	0.000
625.63	51.831	5.000	160.00	97.50	6.730	0.000	24.28		0.14	0.000
635.69	52.665	5.000	158.75	96.74	7.009	0.000	24.28		0.14	0.000
645.76	53.504	5.000	157.49	95.97	7.322	0.000	24.28		0.14	0.000
655.83	54.338	5.000	156.24	95.21	7.537	0.000	24.29		0.14	0.000
665.90	55.173	5.000	154.99	94.45	7.809	0.000	24.29		0.14	0.000
675.98	56.005	5.000	153.74	93.69	8.098	0.000	24.29		0.14	0.000
686.03	56.840	5.000	152.49	92.92	8.318	0.000	24.29		0.14	0.000
696.09	57.672	5.000	151.24	92.16	8.465	0.000	24.29		0.14	0.000
706.16	58.516	5.000	149.98	91.39	8.684	0.000	24.29		0.14	0.000
716.21	59.348	5.000	148.73	90.63	8.829	0.000	24.29		0.14	0.000
726.29	60.182	5.000	147.48	89.87	9.095	0.000	24.29		0.14	0.000
736.35	61.016	5.000	146.23	89.11	9.241	0.000	24.28		0.15	0.000
746.39	61.846	5.000	144.98	88.35	9.337	0.000	24.29		0.15	0.000
756.46	62.680	5.000	143.73	87.59	9.462	0.000	24.29		0.15	0.000
766.54	63.522	5.000	142.47	86.82	9.612	0.000	24.29		0.15	0.000
776.59	64.355	5.000	141.22	86.05	9.779	0.000	24.30		0.15	0.000
786.67	65.187	5.000	139.97	85.29	9.882	0.000	24.29		0.15	0.000
796.75	66.022	5.000	138.72	84.53	9.945	0.000	24.29		0.15	0.000
806.80	66.856	5.000	137.47	83.77	10.022	0.000	24.30		0.15	0.000
816.87	67.690	5.000	136.22	83.01	10.149	0.000	24.30		0.15	0.000
826.95	68.531	5.000	134.95	82.24	10.327	0.000	24.31		0.15	0.000
837.02	69.365	5.000	133.70	81.47	10.461	0.000	24.31		0.15	0.000
847.09	70.198	5.000	132.45	80.71	10.557	0.000	24.32		0.16	0.000
857.17	71.039	5.000	131.19	79.94	10.678	0.000	24.32		0.16	0.000
867.19	71.864	5.000	129.95	79.19	10.792	0.000	24.32		0.16	0.000
877.24	72.697	5.000	128.70	78.43	10.937	0.000	24.32		0.16	0.000
887.32	73.538	5.000	127.44	77.66	11.109	0.000	24.32		0.16	0.000
897.38	74.371	5.000	126.19	76.90	11.171	0.000	24.31		0.16	0.000
907.43	75.206	5.000	124.94	76.14	11.347	0.000	24.31		0.16	0.000
917.51	76.037	5.000	123.69	75.38	11.501	0.000	24.31		0.16	0.000
927.54	76.873	5.000	122.44	74.61	11.678	0.000	24.31		0.16	0.000
937.62	77.705	5.000	121.19	73.85	11.803	0.000	24.31		0.16	0.000
947.69	78.537	5.000	119.95	73.09	11.980	0.000	24.31		0.16	0.000
957.75	79.380	5.000	118.68	72.32	12.166	0.000	24.32		0.16	0.000
967.83	80.213	5.000	117.43	71.56	12.414	0.000	24.32		0.17	0.000
977.90	81.045	5.000	116.18	70.80	12.579	0.000	24.31		0.17	0.000
987.94	81.880	5.000	114.93	70.04	12.818	0.000	24.31		0.17	0.000
998.02	82.715	5.000	113.68	69.27	13.082	0.000	24.32		0.17	0.000
1008.10	83.556	5.000	112.42	68.50	13.327	0.000	24.32		0.17	0.000
1018.17	84.386	5.000	111.17	67.74	13.627	0.000	24.32		0.17	0.000
1028.22	85.221	5.000	109.92	66.98	13.870	0.000	24.31		0.17	0.000
1038.29	86.053	5.000	108.67	66.22	14.208	0.000	24.32		0.17	0.000
1048.35	86.889	5.000	107.42	65.46	14.491	0.000	24.32		0.17	0.000
1058.43	87.722	5.000	106.17	64.70	14.860	0.000	24.32		0.17	0.000
1068.49	88.563	5.000	104.91	63.93	15.218	0.000	24.32		0.17	0.000
1078.56	89.398	5.000	103.65	63.16	15.678	0.000	24.33		0.17	0.000
1088.64	90.228	5.000	102.41	62.40	16.221	0.000	24.33		0.18	0.000
1098.69	91.064	5.000	101.15	61.64	16.812	0.000	24.33		0.18	0.000
1108.75	91.898	5.000	99.90	60.88	17.383	0.000	24.33		0.18	0.000
1118.82	92.728	5.000	98.66	60.12	17.984	0.000	24.33		0.18	0.000
1128.90	93.571	5.000	97.39	59.35	18.728	0.000	24.33		0.18	0.000
1138.96	94.405	5.000	96.14	58.59	19.512	0.000	24.33		0.18	0.000
1149.03	95.236	5.000	94.90	57.83	20.329	0.000	24.33		0.18	0.000
1159.10	96.072	5.000	93.64	57.06	21.265	0.000	24.34		0.18	0.000
1169.16	96.905	5.000	92.39	56.30	22.258	0.000	24.34		0.18	0.000
1179.23	97.746	5.000	91.13	55.53	23.339	0.000	24.34		0.18	0.000
1189.30	98.579	5.000	89.88	54.77	24.465	0.000	24.33		0.18	0.000
1199.35	99.413	5.000	88.63	54.01	25.681	0.000	24.32		0.18	0.000
1209.42	100.247	5.000	87.38	53.25	27.046	0.000	24.32		0.19	0.000
1219.49	101.081	5.000	86.13	52.48	28.527	0.000	24.33		0.19	0.000
1229.51	101.913	5.000	84.88	51.72	30.065	0.000	24.33		0.19	0.000
1239.59	102.746	5.000	83.63	50.96	31.754	0.000	24.34		0.19	0.000
1249.67	103.586	5.000	82.37	50.19	33.726	0.000	24.35		0.19	0.000
1259.74	104.421	5.000	81.12	49.43	35.823	0.000	24.35		0.19	0.000
1269.79	105.255	5.000	79.87	48.67	38.075	0.000	24.35		0.19	0.000
1279.86	106.087	5.000	78.62	47.91	40.446	0.000	24.35		0.19	0.000
1289.93	106.919	5.000	77.37	47.15	43.099	0.000	24.35		0.19	0.000
1299.99	107.547	-1.995	76.43	46.57	45.026	0.000	24.35		0.19	0.000
1310.06	107.711	1.995	76.18	46.42	44.950	0.000	24.35		0.19	0.000
1320.14	107.887	1.995	75.92	46.26	45.009	0.000	24.35		0.19	0.000
1330.18	107.980	-1.995	75.78	46.18	45.159	0.000	24.35		0.19	0.000
1340.25	108.060	-1.995	75.66	46.11	45.086	0.000	24.35		0.19	0.000
1350.31	108.129	-1.995	75.56	46.04	44.973	0.000	24.34		0.20	0.000
1360.39	108.182	1.995	75.48	45.99	44.903	0.000	24.34		0.20	0.000
1370.45	108.315	1.995	75.28	45.87	44.846	0.000	24.34		0.20	0.000
1380.52	108.423	1.995	75.12	45.77	44.851	0.000	24.33		0.20	0.000
1390.57	108.546	1.995	74.93	45.66	44.986	0.000	24.34		0.20	0.000
1400.65	108.619	-0.180	74.82	45.59	45.084	0.000	24.34		0.20	0.000
1410.71	108.639	-1.995	74.79	45.58	45.131	0.000	24.34		0.20	0.000
1420.78	108.652	-1.995	74.77	45.56	45.014	0.000	24.34		0.20	0.000
1430.85	108.712	-1.815	74.68	45.51	44.998	0.000	24.34		0.20	0.000
1440.89	108.769	-1.995	74.60	45.46	45.000	0.000	24.34		0.20	0.000
1450.93	108.824	-1.995	74.51	45.41	45.000	0.000	24.33		0.20	0.000
1461.01	108.879	-1.995	74.43	45.36	44.969	0.000	24.34		0.20	0.000
1471.05	108.923	1.995	74.37	45.32	44.861	0.000	24.33		0.20	0.000
1481.11	108.985	1.995	74.27	45.26	44.852	0.000	24.33		0.21	0.000
1491.19	109.046	1.995	74.18	45.20	44.914	0.000	24.32		0.21	0.000
1501.26	109.152	1.995	74.02	45.11	44.983	0.000	24.33		0.21	0.000
1511.31	109.197	1.995	73.95	45.07	44.995	0.000	24.34		0.21	0.000
1521.38	109.244	-0.144	73.88	45.02	45.064	0.000	24.35		0.21	0.000
1531.43	109.215	-1.995	73.93	45.05	45.064	0.000	24.35		0.21	0.000
1541.51	109.220	-1.995	73.92	45.04	45.009	0.000	24.36		0.21	0.000
1551.57	109.282	1.995	73.83	44.99	44.869	0.000	24.35		0.21	0.000
1561.63	109.360	-0.084	73.71	44.92	45.058	0.000	24.36		0.21	0.000
1571.68	109.355	-1.526	73.72	44.92	45.009	0.000	24.35		0.21	0.000
1581.76	109.324	1.995	73.76	44.95	44.923	0.000	24.35		0.21	0.000
1591.83	109.415	1.995	73.63	44.87	45.010	0.000	24.34		0.21	0.000
1601.91	109.411	-1.995	73.63	44.87	45.047	0.000	24.33		0.21	0.000
1611.97	109.406	1.995	73.64	44.87	44.943	0.000	24.33		0.21	0.000
1622.01	109.493	1.995	73.51	44.80	44.968	0.000	24.34		0.21	0.000
1632.08	109.571	1.298	73.39	44.72	45.011	0.000	24.34		0.21	0.000
1642.15	109.599	-1.995	73.35	44.70	45.134	0.000	24.34		0.22	0.000
1652.22	109.569	-1.827	73.40	44.73	45.000	0.000	24.34		0.22	0.000
1662.30	109.564	1.995	73.40	44.73	44.904	0.000	24.34		0.22	0.000
1672.33	109.655	1.995	73.27	44.65	44.895	0.000	24.35		0.22	0.000
1682.40	109.720	1.995	73.17	44.59	44.993	0.000	24.35		0.22	0.000
1692.48	109.775	-1.995	73.09	44.54	45.158	0.000	24.36		0.22	0.000
1702.54	109.756	-0.781	73.12	44.55	44.985	0.000	24.36		0.22	0.000
1712.60	109.773	1.995	73.09	44.54	44.858	0.000	24.35		0.22	0.000
1722.67	109.880	1.442	72.93	44.44	45.068	0.000	24.35		0.22	0.000
1732.72	109.888	1.959	72.92	44.43	45.035	0.000	24.35		0.22	0.000
1742.78	109.858	-1.995	72.96	44.46	45.087	0.000	24.34		0.22	0.000
1752.83	109.864	1.995	72.95	44.46	44.934	0.000	24.34		0.22	0.000
1762.91	109.939	0.313	72.84	44.39	44.977	0.000	24.34		0.22	0.000
1772.96	109.935	-1.322	72.85	44.39	44.993	0.000	24.33		0.22	0.000
1783.03	109.901	0.673	72.90	44.42	44.933	0.000	24.34		0.22	0.000
1793.08	110.001	1.995	72.75	44.33	44.912	0.000	24.34		0.22	0.000
1803.14	110.039	1.995	72.69	44.30	45.021	0.000	24.35		0.22	0.000
1813.22	110.007	-0.505	72.74	44.33	44.918	0.000	24.35		0.23	0.000
1823.28	110.014	1.995	72.73	44.32	44.906	0.000	24.36		0.23	0.000
1833.36	110.048	0.433	72.68	44.29	44.932	0.000	24.36		0.23	0.000
1843.43	110.102	-0.853	72.60	44.24	44.896	0.000	24.36		0.23	0.000
1853.49	110.138	0.204	72.54	44.21	44.929	0.000	24.36		0.23	0.000
1863.55	110.275	1.995	72.34	44.08	44.947	0.000	24.37		0.23	0.000
1873.62	110.329	0.457	72.26	44.03	45.024	0.000	24.36		0.23	0.000
1883.69	110.306	-1.995	72.29	44.05	45.065	0.000	24.36		0.23	0.000
1893.75	110.330	-1.995	72.25	44.03	45.062	0.000	24.36		0.23	0.000
1903.83	110.349	1.995	72.23	44.01	44.939	0.000	24.35		0.23	0.000
1913.88	110.401	1.995	72.15	43.97	44.922	0.000	24.36		0.23	0.000
1923.93	110.498	1.995	72.00	43.88	44.981	0.000	24.36		0.23	0.000
1934.00	110.544	-0.084	71.93	43.83	45.115	0.000	24.36		0.23	0.000
1944.08	110.534	-1.995	71.95	43.84	45.135	0.000	24.35		0.23	0.000
1954.15	110.496	0.781	72.01	43.88	44.900	0.000	24.35		0.23	0.000
1964.23	110.572	1.995	71.89	43.81	44.884	0.000	24.36		0.23	0.000
1974.31	110.635	-1.178	71.80	43.75	45.103	0.000	24.35		0.24	0.000
1984.35	110.590	-1.010	71.86	43.79	44.969	0.000	24.35		0.24	0.000
1994.42	110.630	1.995	71.80	43.76	44.936	0.000	24.34		0.24	0.000
2004.50	110.703	1.863	71.70	43.69	45.013	0.000	24.35		0.24	0.000
2014.56	110.694	-1.995	71.71	43.70	45.066	0.000	24.35		0.24	0.000
2024.64	110.712	1.995	71.68	43.68	44.902	0.000	24.35		0.24	0.000
2034.69	110.710	1.995	71.69	43.68	44.894	0.000	24.36		0.24	0.000
2044.76	110.803	-1.995	71.55	43.60	45.140	0.000	24.36		0.24	0.000
2054.80	110.756	-1.250	71.62	43.64	44.979	0.000	24.34		0.24	0.000
2064.88	110.784	1.995	71.57	43.62	44.906	0.000	24.35		0.24	0.000
2074.89	110.860	1.262	71.46	43.55	45.002	0.000	24.35		0.24	0.000
2084.95	110.816	-1.514	71.53	43.59	45.009	0.000	24.36		0.24	0.000
2095.00	110.820	1.995	71.52	43.58	44.974	0.000	24.36		0.24	0.000
2105.07	110.879	-0.385	71.43	43.53	44.973	0.000	24.36		0.24	0.000
2115.12	110.853	-1.995	71.47	43.55	45.038	0.000	24.36		0.24	0.000
2125.20	110.881	1.995	71.43	43.53	44.966	0.000	24.34		0.24	0.000
2135.26	110.911	-1.995	71.38	43.50	45.115	0.000	24.35		0.24	0.000
2145.32	110.887	1.863	71.42	43.52	44.930	0.000	24.34		0.24	0.000
2155.38	110.949	-0.445	71.33	43.46	45.060	0.000	24.34		0.25	0.000
2165.46	110.901	-1.334	71.40	43.51	44.965	0.000	24.34		0.25	0.000
2175.52	110.947	1.995	71.33	43.47	44.866	0.000	24.34		0.25	0.000
2185.59	111.044	1.995	71.18	43.38	45.041	0.000	24.35		0.25	0.000
2195.67	111.067	0.805	71.15	43.36	44.988	0.000	24.35		0.25	0.000
2205.73	111.066	-1.995	71.15	43.36	45.134	0.000	24.35		0.25	0.000
2215.80	111.028	0.469	71.21	43.39	44.934	0.000	24.36		0.25	0.000
2225.87	111.084	1.995	71.12	43.34	44.986	0.000	24.36		0.25	0.000
2235.92	111.128	-1.995	71.06	43.30	45.094	0.000	24.36		0.25	0.000
2246.00	111.105	-1.130	71.09	43.32	45.019	0.000	24.36		0.25	0.000
2256.07	111.033	1.238	71.20	43.39	44.906	0.000	24.35		0.25	0.000
2266.12	111.105	1.995	71.09	43.32	44.833	0.000	24.36		0.25	0.000
2276.18	111.198	-1.995	70.95	43.24	45.216	0.000	24.36		0.25	0.000
2286.26	111.176	-1.935	70.99	43.26	45.083	0.000	24.37		0.25	0.000
2296.34	111.114	-0.325	71.08	43.31	44.917	0.000	24.37		0.25	0.000
2306.40	111.197	1.995	70.95	43.24	45.012	0.000	24.37		0.25	0.000
2316.47	111.180	-1.995	70.98	43.25	45.093	0.000	24.37		0.25	0.000
2326.55	111.158	0.216	71.01	43.27	44.943	0.000	24.37		0.25	0.000
2336.58	111.230	1.995	70.90	43.21	44.966	0.000	24.38		0.26	0.000
2346.65	111.258	-1.683	70.86	43.18	45.029	0.000	24.37		0.26	0.000
2356.70	111.197	-1.070	70.95	43.24	44.982	0.000	24.37		0.26	0.000
2366.75	111.255	1.995	70.87	43.19	44.964	0.000	24.38		0.26	0.000
2376.82	111.271	-1.995	70.84	43.17	45.033	0.000	24.38		0.26	0.000
2386.87	111.197	0.180	70.95	43.24	44.967	0.000	24.38		0.26	0.000
2396.92	111.269	1.995	70.85	43.17	44.945	0.000	24.38		0.26	0.000
2407.00	111.320	-1.406	70.77	43.13	45.037	0.000	24.38		0.26	0.000
2417.08	111.263	-1.995	70.85	43.18	45.059	0.000	24.38		0.26	0.000
2427.15	111.293	1.995	70.81	43.15	44.930	0.000	24.38		0.26	0.000
2437.19	111.374	1.995	70.69	43.08	44.995	0.000	24.38		0.26	0.000
2447.25	111.387	-1.995	70.67	43.06	45.112	0.000	24.38		0.26	0.000
2457.31	111.360	0.156	70.71	43.09	44.946	0.000	24.38		0.26	0.000
2467.39	111.370	1.995	70.70	43.08	44.804	0.000	24.38		0.26	0.000
2477.45	111.489	-0.120	70.52	42.97	45.066	0.000	24.38		0.26	0.000
2487.53	111.469	-1.995	70.55	42.99	45.072	0.000	24.38		0.26	0.000
2497.60	111.443	1.286	70.59	43.01	44.951	0.000	24.39		0.26	0.000
2507.65	111.522	1.490	70.47	42.94	45.019	0.000	24.39		0.26	0.000
2517.70	111.515	-1.995	70.48	42.95	45.116	0.000	24.39		0.26	0.000
2527.74	111.457	-1.995	70.56	43.00	44.991	0.000	24.39		0.27	0.000
2537.82	111.488	1.995	70.52	42.97	44.862	0.000	24.39		0.27	0.000
2547.88	111.576	-0.252	70.39	42.89	45.085	0.000	24.39		0.27	0.000
2557.95	111.535	-1.995	70.45	42.93	45.052	0.000	24.39		0.27	0.000
2568.00	111.505	1.995	70.49	42.96	44.925	0.000	24.39		0.27	0.000
2578.08	111.596	1.995	70.36	42.87	44.941	0.000	24.38		0.27	0.000
2588.15	111.599	-1.995	70.35	42.87	45.040	0.000	24.39		0.27	0.000
2598.23	111.546	1.995	70.43	42.92	44.892	0.000	24.39		0.27	0.000
2608.30	111.657	1.995	70.26	42.82	44.970	0.000	24.38		0.27	0.000
2618.36	111.683	-0.998	70.23	42.79	45.116	0.000	24.37		0.27	0.000
2628.41	111.705	-1.995	70.19	42.77	45.216	0.000	24.37		0.27	0.000
2638.48	111.681	-1.995	70.23	42.79	45.060	0.000	24.38		0.27	0.000
2648.54	111.638	1.995	70.29	42.83	44.848	0.000	24.37		0.27	0.000
2658.61	111.730	1.995	70.15	42.75	45.004	0.000	24.37		0.27	0.000
2668.66	111.742	-1.995	70.14	42.74	45.129	0.000	24.37		0.27	0.000
2678.73	111.680	-0.493	70.23	42.80	44.944	0.000	24.38		0.27	0.000
2688.79	111.789	1.659	70.07	42.70	45.000	0.000	24.38		0.27	0.000
2698.85	111.792	-1.995	70.06	42.69	45.110	0.000	24.38		0.27	0.000
2708.92	111.739	1.995	70.14	42.74	44.889	0.000	24.38		0.27	0.000
2719.00	111.837	1.262	70.00	42.65	45.013	0.000	24.38		0.28	0.000
2729.06	111.808	-1.995	70.04	42.68	45.095	0.000	24.38		0.28	0.000
2739.12	111.766	1.995	70.10	42.72	44.928	0.000	24.38		0.28	0.000
2749.16	111.797	1.995	70.05	42.69	44.899	0.000	24.39		0.28	0.000
2759.24	111.857	-1.995	69.96	42.63	45.046	0.000	24.38		0.28	0.000
2769.31	111.799	-0.901	70.05	42.69	44.950	0.000	24.38		0.28	0.000
2779.37	111.842	1.995	69.99	42.65	44.915	0.000	24.38		0.28	0.000
2789.43	111.879	-1.995	69.93	42.61	45.059	0.000	24.38		0.28	0.000
2799.49	111.821	1.995	70.02	42.67	44.939	0.000	24.38		0.28	0.000
2809.57	111.893	-0.469	69.91	42.60	45.053	0.000	24.39		0.28	0.000
2819.64	111.856	-1.995	69.97	42.64	45.006	0.000	24.39		0.28	0.000
2829.68	111.887	1.995	69.92	42.61	44.903	0.000	24.39		0.28	0.000
2839.75	111.931	-1.995	69.85	42.57	45.158	0.000	24.39		0.28	0.000
2849.81	111.855	-1.899	69.97	42.64	44.978	0.000	24.39		0.28	0.000
2859.89	111.893	1.995	69.91	42.60	44.895	0.000	24.38		0.28	0.000
2869.94	111.928	-1.995	69.86	42.57	45.068	0.000	24.39		0.28	0.000
2880.00	111.874	1.995	69.94	42.62	44.916	0.000	24.39		0.28	0.000
2890.07	111.953	-1.995	69.82	42.55	45.049	0.000	24.39		0.28	0.000
2900.15	111.874	-0.769	69.94	42.62	44.956	0.000	24.39		0.28	0.000
2910.19	111.911	1.995	69.88	42.59	44.881	0.000	24.39		0.28	0.000
2920.26	111.960	-1.995	69.81	42.54	45.106	0.000	24.39		0.28	0.000
2930.33	111.906	1.875	69.89	42.59	44.956	0.000	24.39		0.28	0.000
2940.41	111.974	-0.192	69.79	42.53	45.035	0.000	24.39		0.29	0.000
2950.47	111.925	-0.313	69.86	42.57	44.940	0.000	24.39		0.29	0.000
2960.54	111.906	1.995	69.89	42.59	44.896	0.000	24.39		0.29	0.000
2970.61	111.994	1.995	69.76	42.51	45.001	0.000	24.39		0.29	0.000
2980.64	111.980	-1.995	69.78	42.52	45.013	0.000	24.39		0.29	0.000
2990.68	111.937	1.719	69.85	42.56	44.946	0.000	24.39		0.29	0.000
3000.75	112.033	0.889	69.70	42.47	45.062	0.000	24.39		0.29	0.000
3010.82	111.990	-1.995	69.76	42.51	45.046	0.000	24.39		0.29	0.000
3020.90	112.003	1.995	69.75	42.50	44.905	0.000	24.39		0.29	0.000
3030.95	112.047	-1.995	69.68	42.46	45.092	0.000	24.39		0.29	0.000
3040.99	111.996	1.995	69.76	42.51	44.958	0.000	24.39		0.29	0.000
3051.07	112.062	-1.430	69.66	42.45	45.088	0.000	24.40		0.29	0.000
3061.15	112.010	0.156	69.74	42.49	44.949	0.000	24.40		0.29	0.000
3071.21	112.006	1.995	69.74	42.50	44.881	0.000	24.39		0.29	0.000
3081.28	112.088	-1.995	69.62	42.42	45.096	0.000	24.39		0.29	0.000
